#     Step Nr.          Time[fs]        Kin.[a.u.]          Temp[K]            Pot.[a.u.]        Cons Qty[a.u.]        UsedTime[s]
         0            0.000000         0.273612846       300.000000000     -1102.629448594     -1102.355835748         0.000000000
         1            0.500000         0.279633819       306.601634918     -1102.634728487     -1102.356032711      1270.203089699
         2            1.000000         0.278176228       305.003473713     -1102.643688340     -1102.356285322        76.771822371
         3            1.500000         0.280393422       307.434492997     -1102.653080703     -1102.356547289        77.122072544
         4            2.000000         0.282889483       310.171274159     -1102.655862600     -1102.356593452        77.396073535
         5            2.500000         0.294372846       322.762089256     -1102.653391721     -1102.356505399        79.804066893
         6            3.000000         0.293202260       321.478612092     -1102.644027094     -1102.356292113        73.752101373
         7            3.500000         0.275739443       302.331685376     -1102.631056927     -1102.356023130        72.755110517
         8            4.000000         0.264614578       290.133941924     -1102.619771042     -1102.355795899        75.036060162
         9            4.500000         0.268857948       294.786540953     -1102.613634927     -1102.355689469        73.929069046
        10            5.000000         0.262607548       287.933354685     -1102.612082629     -1102.355666725       511.633601859
        11            5.500000         0.288697192       316.539076467     -1102.616775792     -1102.355783250        73.063032825
        12            6.000000         0.295096611       323.555654134     -1102.622813260     -1102.355937950        73.046086978
        13            6.500000         0.289353988       317.259214176     -1102.629250655     -1102.356081233        73.199120861
        14            7.000000         0.287416783       315.135185470     -1102.637410482     -1102.356246228        72.279046055
        15            7.500000         0.310165102       340.077346930     -1102.641761748     -1102.356328622        72.615083199
        16            8.000000         0.323802738       355.030192819     -1102.645349103     -1102.356402515        73.607080832
        17            8.500000         0.301956868       331.077513241     -1102.645418760     -1102.356418530        73.549065046
        18            9.000000         0.286912673       314.582459298     -1102.641734958     -1102.356310656        73.570140064
        19            9.500000         0.276541909       303.211541919     -1102.635703652     -1102.356123440        72.505041823
        20           10.000000         0.260847091       286.003119536     -1102.628436222     -1102.355915126       569.641665857
        21           10.500000         0.250829117       275.019014031     -1102.621372875     -1102.355688604        76.732045814
        22           11.000000         0.252589683       276.949368713     -1102.619839890     -1102.355630752        75.294086564
        23           11.500000         0.254712048       279.276413740     -1102.626571548     -1102.355823251        76.448115986
        24           12.000000         0.265639894       291.258138723     -1102.636526005     -1102.356020668        75.331067830
        25           12.500000         0.277078124       303.799469221     -1102.645826859     -1102.356189502        77.277080268
        26           13.000000         0.276140999       302.771967344     -1102.652591961     -1102.356272544        75.682085227
        27           13.500000         0.297663960       326.370597939     -1102.655384720     -1102.356219451        76.006079782
        28           14.000000         0.292250721       320.435307919     -1102.655692042     -1102.356103565        76.553068597
        29           14.500000         0.281400579       308.538780420     -1102.654888372     -1102.356028025        77.548139013
        30           15.000000         0.286612223       314.253034546     -1102.651854052     -1102.355941964       598.591696419
        31           15.500000         0.301188497       330.235039789     -1102.649497290     -1102.355883179        78.012055162
        32           16.000000         0.299504682       328.388838219     -1102.646731418     -1102.355818637        76.660091385
        33           16.500000         0.291057519       319.127033606     -1102.645976761     -1102.355750903        75.116128843
        34           17.000000         0.291210761       319.295053980     -1102.647476574     -1102.355705892        75.834056050
        35           17.500000         0.303751951       333.045713179     -1102.652982102     -1102.355823547        76.154081229
        36           18.000000         0.299220135       328.076849934     -1102.659956618     -1102.356048442        76.671086181
        37           18.500000         0.316528355       347.054270077     -1102.662878593     -1102.356180240        77.756086271
        38           19.000000         0.312059887       342.154864507     -1102.660507582     -1102.356202008        76.136125393
        39           19.500000         0.316171730       346.663252967     -1102.656115673     -1102.356078685        76.826036960
        40           20.000000         0.299355453       328.225217601     -1102.648878514     -1102.355890093       548.546642277
        41           20.500000         0.290515955       318.533241422     -1102.643145712     -1102.355773629        75.371045593
        42           21.000000         0.292335239       320.527976607     -1102.641775355     -1102.355839829        76.605091397
        43           21.500000         0.292864229       321.107981598     -1102.641696945     -1102.355896983        76.312097359
        44           22.000000         0.298441806       327.223458585     -1102.641498294     -1102.355927731        77.297062218
        45           22.500000         0.281584966       308.740950017     -1102.641249503     -1102.355973007        77.134087328
        46           23.000000         0.268647469       294.555763713     -1102.638733432     -1102.355935123        75.475064829
        47           23.500000         0.272321768       298.584410955     -1102.640558486     -1102.355980954        75.026103102
        48           24.000000         0.280027628       307.033422556     -1102.643886369     -1102.356039317        75.613090899
        49           24.500000         0.277870189       304.667920803     -1102.647866085     -1102.356127491        75.682106998
        50           25.000000         0.275189966       301.729217684     -1102.650936078     -1102.356256634       714.496766806
        51           25.500000         0.260569407       285.698655714     -1102.652308206     -1102.356346909        75.624095552
        52           26.000000         0.260067903       285.148786102     -1102.653011744     -1102.356342919        74.839033484
        53           26.500000         0.259523824       284.552236394     -1102.650868573     -1102.356222289        75.099049866
        54           27.000000         0.258216561       283.118901724     -1102.649712215     -1102.356088336        77.213045463
        55           27.500000         0.252322957       276.656919568     -1102.649573181     -1102.356007795        77.668037746
        56           28.000000         0.250219224       274.350303125     -1102.654470790     -1102.356129352        76.795057904
        57           28.500000         0.266792766       292.522193684     -1102.663219866     -1102.356395973        76.540114060
        58           29.000000         0.270022295       296.063177828     -1102.667565255     -1102.356510507        76.378027782
        59           29.500000         0.272968396       299.293400089     -1102.671480487     -1102.356565130        77.682090696
        60           30.000000         0.276980269       303.692176295     -1102.671991386     -1102.356537916       607.373695567
        61           30.500000         0.274619786       301.104049797     -1102.671363550     -1102.356500826        75.324051619
        62           31.000000         0.274218381       300.663932521     -1102.668392698     -1102.356435724        76.227050945
        63           31.500000         0.278232801       305.065502826     -1102.666314114     -1102.356430160        76.573089741
        64           32.000000         0.291317859       319.412480537     -1102.662998567     -1102.356351195        75.935055073
        65           32.500000         0.287118339       314.807959572     -1102.660598886     -1102.356288021        76.471094262
        66           33.000000         0.277406894       304.159944898     -1102.656416776     -1102.356161111        76.344114292
        67           33.500000         0.269359451       295.336408691     -1102.654625485     -1102.356095346        76.893032949
        68           34.000000         0.284279324       311.695150794     -1102.655748156     -1102.356119225        77.440075394
        69           34.500000         0.307167002       336.790110299     -1102.663050205     -1102.356274076        76.314078093
        70           35.000000         0.309877738       339.762269572     -1102.668570830     -1102.356387568       707.259794679
        71           35.500000         0.306403989       335.953513258     -1102.670562621     -1102.356379401        74.924042068
        72           36.000000         0.294675470       323.093898242     -1102.671396058     -1102.356341667        73.742067151
        73           36.500000         0.304358645       333.710916780     -1102.670834857     -1102.356309045        73.854097161
        74           37.000000         0.291807604       319.949456255     -1102.670878157     -1102.356269137        74.607087914
        75           37.500000         0.308475946       338.225288705     -1102.673067446     -1102.356292656        73.647110585
        76           38.000000         0.283414248       310.746646682     -1102.675533624     -1102.356355391        75.203044068
        77           38.500000         0.281646563       308.808486783     -1102.678692285     -1102.356429445        73.477093719
        78           39.000000         0.287676450       315.419895249     -1102.682841958     -1102.356525077        74.999061327
        79           39.500000         0.296160721       324.722386508     -1102.682175598     -1102.356498364        73.626081157
        80           40.000000         0.285683813       313.235088653     -1102.677974318     -1102.356356637       519.259569235
        81           40.500000         0.307988658       337.691007621     -1102.673529462     -1102.356219005        73.107056569
        82           41.000000         0.283636192       310.989995645     -1102.670246716     -1102.356145174        74.652054004
        83           41.500000         0.292098231       320.268111452     -1102.671499341     -1102.356216322        78.821111023
        84           42.000000         0.319349960       350.147990617     -1102.673448769     -1102.356302368        79.012068421
        85           42.500000         0.324155512       355.416988732     -1102.673504057     -1102.356347537        77.192083295
        86           43.000000         0.300808653       329.818564681     -1102.671330785     -1102.356328113        71.913108308
        87           43.500000         0.297078691       325.728885646     -1102.670057303     -1102.356340372        71.219051186
        88           44.000000         0.300955400       329.979463577     -1102.669580757     -1102.356351231        71.564062685
        89           44.500000         0.292778428       321.013906599     -1102.667336026     -1102.356316568        71.725078825
        90           45.000000         0.274898758       301.409925937     -1102.662884544     -1102.356238183       513.220577113
        91           45.500000         0.273692113       300.086912077     -1102.659033483     -1102.356178724        72.724074040
        92           46.000000         0.263519393       288.933136857     -1102.657525460     -1102.356128008        70.964039523
        93           46.500000         0.271944812       298.171101600     -1102.657041021     -1102.356118620        72.077075448
        94           47.000000         0.261193256       286.382668676     -1102.659305313     -1102.356168408        71.506074291
        95           47.500000         0.268739647       294.656831480     -1102.662257239     -1102.356248589        72.417077459
        96           48.000000         0.277668876       304.447192794     -1102.659258383     -1102.356183994        71.677077413
        97           48.500000         0.283957697       311.342506709     -1102.654190135     -1102.356020721        71.634111598
        98           49.000000         0.275837644       302.439357540     -1102.649218764     -1102.355862121        71.429037008
        99           49.500000         0.271452640       297.631464532     -1102.647594551     -1102.355828560        71.512081712
       100           50.000000         0.259610339       284.647095631     -1102.650520153     -1102.355935729       520.845588040
       101           50.500000         0.269993665       296.031786957     -1102.655543128     -1102.356078933        71.201037109
       102           51.000000         0.273117442       299.456819301     -1102.661215689     -1102.356201154        71.744079247
       103           51.500000         0.272037750       298.273002340     -1102.662388408     -1102.356193925        72.297115866
       104           52.000000         0.271881612       298.101806460     -1102.660090195     -1102.356086814        71.253034879
       105           52.500000         0.261329875       286.532462964     -1102.656857315     -1102.355953450        71.188074730
       106           53.000000         0.257851077       282.718170422     -1102.658945705     -1102.356019583        72.150077727
       107           53.500000         0.267209384       292.978989626     -1102.663842534     -1102.356194618        71.383063063
       108           54.000000         0.273131830       299.472595150     -1102.669023867     -1102.356369503        71.863087788
       109           54.500000         0.279496678       306.451267896     -1102.674150739     -1102.356461531        70.609114036
       110           55.000000         0.269132455       295.087521462     -1102.673751209     -1102.356425879       465.338495623
       111           55.500000         0.265321275       290.908791904     -1102.669773159     -1102.356314786        74.852041475
       112           56.000000         0.277186419       303.918208076     -1102.664105670     -1102.356152559        74.126078799
       113           56.500000         0.266558642       292.265491164     -1102.660314495     -1102.356062526        73.138060715
       114           57.000000         0.280536149       307.590985113     -1102.656732764     -1102.356020482        75.193092387
       115           57.500000         0.282306491       309.532058375     -1102.656574487     -1102.356046989        74.346116439
       116           58.000000         0.276445203       303.105509345     -1102.655533039     -1102.356057184        81.786053021
       117           58.500000         0.269101032       295.053067725     -1102.657561844     -1102.356124044        74.007084571
       118           59.000000         0.278950016       305.851885600     -1102.659062945     -1102.356186541        73.363069832
       119           59.500000         0.294719772       323.142473298     -1102.658528241     -1102.356217954        74.158079702
       120           60.000000         0.290998392       319.062204390     -1102.655979178     -1102.356187313       482.160543624
       121           60.500000         0.289410294       317.320949829     -1102.654228474     -1102.356152654        74.806045569
       122           61.000000         0.293512506       321.818778241     -1102.654109831     -1102.356151272        74.126078349
       123           61.500000         0.289798790       317.746912284     -1102.653635858     -1102.356160746        73.180077307
       124           62.000000         0.290653255       318.683782530     -1102.653659111     -1102.356198626        74.122077167
       125           62.500000         0.293504719       321.810240662     -1102.655324883     -1102.356286393        74.245078724
       126           63.000000         0.289107767       316.989247314     -1102.655456745     -1102.356322046        73.430115763
       127           63.500000         0.294780902       323.209498695     -1102.654167649     -1102.356305419        73.931041099
       128           64.000000         0.277753610       304.540099089     -1102.648018535     -1102.356152763        73.324077033
       129           64.500000         0.272443653       298.718050182     -1102.641070811     -1102.355999393        77.317082297
       130           65.000000         0.271228323       297.385514249     -1102.637696521     -1102.355926513       510.807576202
       131           65.500000         0.275557079       302.131734360     -1102.638538183     -1102.355950547        78.723030515
       132           66.000000         0.285389151       312.912008988     -1102.644284875     -1102.356092329        78.786135130
       133           66.500000         0.292997469       321.254071339     -1102.648624646     -1102.356233841        78.881053843
       134           67.000000         0.294247756       322.624936363     -1102.650661681     -1102.356313493        78.508084167
       135           67.500000         0.300078568       329.018069689     -1102.651084352     -1102.356309325        80.755065661
       136           68.000000         0.302756321       331.954064659     -1102.649784365     -1102.356222999        78.567120891
       137           68.500000         0.297596561       326.296698897     -1102.647359811     -1102.356156656        79.212048694
       138           69.000000         0.273927561       300.345066394     -1102.645769829     -1102.356207648        78.911100436
       139           69.500000         0.267163874       292.929091310     -1102.643835930     -1102.356259859        81.979085479
       140           70.000000         0.278498842       305.357200792     -1102.644009474     -1102.356288923       489.495558742
       141           70.500000         0.264609756       290.128654227     -1102.640916239     -1102.356210461        80.023069795
       142           71.000000         0.275848792       302.451580456     -1102.635774083     -1102.356094080        78.728112347
       143           71.500000         0.257052117       281.842158324     -1102.632946463     -1102.356075802        78.920058005
       144           72.000000         0.282505137       309.749861274     -1102.631876147     -1102.356088042        80.731079344
       145           72.500000         0.285412026       312.937090135     -1102.632540281     -1102.356152565        79.187144272
       146           73.000000         0.278504406       305.363300670     -1102.634513394     -1102.356274715        81.537032489
       147           73.500000         0.279110664       306.028026236     -1102.636342969     -1102.356431654        79.960089814
       148           74.000000         0.292500076       320.708709662     -1102.634719075     -1102.356475181        84.419067085
       149           74.500000         0.296903692       325.537010211     -1102.627935583     -1102.356328849        83.529146291
       150           75.000000         0.294694717       323.115002181     -1102.618372039     -1102.356041840       503.831540775
       151           75.500000         0.285454708       312.983888442     -1102.610707746     -1102.355830728        91.174124166
       152           76.000000         0.274948938       301.464944640     -1102.605851609     -1102.355771048        83.302052561
       153           76.500000         0.269066412       295.015108935     -1102.603421611     -1102.355775819        84.773076456
       154           77.000000         0.252638696       277.003108757     -1102.602446022     -1102.355782216        95.405144267
       155           77.500000         0.252647810       277.013101395     -1102.604834151     -1102.355809262        84.179071527
       156           78.000000         0.248309625       272.256543615     -1102.609458628     -1102.355888298        90.983109824
       157           78.500000         0.263643246       289.068934214     -1102.618092984     -1102.356068239       107.449147016
       158           79.000000         0.280238876       307.265043560     -1102.626226479     -1102.356274483        90.457068350
       159           79.500000         0.291873840       320.022079840     -1102.629618419     -1102.356369292       110.998120897
       160           80.000000         0.292840236       321.081675425     -1102.629537860     -1102.356366097       746.304878328
       161           80.500000         0.275709444       302.298793632     -1102.624362509     -1102.356219823        99.706081659
       162           81.000000         0.275928971       302.539491706     -1102.618502255     -1102.356033296        94.475142084
       163           81.500000         0.280755945       307.831977661     -1102.614171334     -1102.355879773       108.232062981
